{
        "particle": "proton",
        "energy": "300 MeV",
        "Zmin": "0*m",
        "Zmax": "0.7*m",
        "bins": "1000",
        "SetCutValue": "0.01*mm"
}


# Z (mm) 	 Energy Deposition (MeV)
0.35	0
1.05	0
1.75	0
2.45	0
3.15	0
3.85	0
4.55	0
5.25	0
5.95	0
6.65	0
7.35	0
8.05	0
8.75	0
9.45	0
10.15	0
10.85	0
11.55	0
12.25	0
12.95	0
13.65	0
14.35	0
15.05	0
15.75	0
16.45	0
17.15	0
17.85	0
18.55	0
19.25	0
19.95	0
20.65	0
21.35	0
22.05	0
22.75	0
23.45	0
24.15	0
24.85	0
25.55	0
26.25	0
26.95	0
27.65	0
28.35	0
29.05	0
29.75	0
30.45	0
31.15	0
31.85	0
32.55	0
33.25	0
33.95	0
34.65	0
35.35	0
36.05	0
36.75	0
37.45	0
38.15	0
38.85	0
39.55	0
40.25	0
40.95	0
41.65	0
42.35	0
43.05	0
43.75	0
44.45	0
45.15	0
45.85	0
46.55	0
47.25	0
47.95	0
48.65	0
49.35	0
50.05	0
50.75	0
51.45	0
52.15	0
52.85	0
53.55	0
54.25	0
54.95	0
55.65	0
56.35	0
57.05	0
57.75	0
58.45	0
59.15	0
59.85	0
60.55	0
61.25	0
61.95	0
62.65	0
63.35	0
64.05	0
64.75	0
65.45	0
66.15	0
66.85	0
67.55	0
68.25	0
68.95	0
69.65	0
70.35	0
71.05	0
71.75	0
72.45	0
73.15	0
73.85	0
74.55	0
75.25	0
75.95	0
76.65	0
77.35	0
78.05	0
78.75	0
79.45	0
80.15	0
80.85	0
81.55	0
82.25	0
82.95	0
83.65	0
84.35	0
85.05	0
85.75	0
86.45	0
87.15	0
87.85	0
88.55	0
89.25	0
89.95	0
90.65	0
91.35	0
92.05	0
92.75	0
93.45	0
94.15	0
94.85	0
95.55	0
96.25	0
96.95	0
97.65	0
98.35	0
99.05	0
99.75	2906.89
100.45	2882.08
101.15	2958.87
101.85	2950.4
102.55	2977.76
103.25	3007.51
103.95	3039.4
104.65	2997.46
105.35	2949.23
106.05	2984.97
106.75	2972.87
107.45	3051.81
108.15	3025.49
108.85	3015.17
109.55	3022.83
110.25	3050.87
110.95	3075.03
111.65	3114.69
112.35	3165.43
113.05	3175.07
113.75	3159.12
114.45	3058.75
115.15	3092.6
115.85	3126.85
116.55	3209.89
117.25	3126.38
117.95	3155.08
118.65	3180.65
119.35	3150.25
120.05	3131.9
120.75	3154.61
121.45	3229.36
122.15	3216.1
122.85	3189.52
123.55	3154.69
124.25	3187.78
124.95	3266.05
125.65	3284.37
126.35	3162.09
127.05	3281.78
127.75	3319.8
128.45	3257.03
129.15	3252.33
129.85	3217.59
130.55	3277.14
131.25	3258.87
131.95	3197.11
132.65	3192.93
133.35	3334.84
134.05	3223.86
134.75	3387.97
135.45	3321.18
136.15	3203.13
136.85	3297.43
137.55	3263.85
138.25	3259.53
138.95	3325.38
139.65	3441.89
140.35	3393.65
141.05	3395.83
141.75	3443.55
142.45	3358.26
143.15	3342.16
143.85	3301.02
144.55	3343.15
145.25	3432.47
145.95	3324.98
146.65	3344.74
147.35	3331.14
148.05	3329.25
148.75	3354.05
149.45	3443.35
150.15	3369.52
150.85	3474.45
151.55	3461.06
152.25	3367.38
152.95	3410.88
153.65	3396.87
154.35	3350.06
155.05	3343.68
155.75	3359.81
156.45	3515.65
157.15	3500.34
157.85	3459.69
158.55	3473.59
159.25	3441.03
159.95	3507.63
160.65	3374.83
161.35	3525.33
162.05	3611.48
162.75	3569.42
163.45	3522.31
164.15	3470.88
164.85	3416.77
165.55	3390.89
166.25	3489.35
166.95	3395.15
167.65	3466.47
168.35	3548.35
169.05	3509.88
169.75	3571.25
170.45	3516.47
171.15	3510.47
171.85	3622.8
172.55	3551.36
173.25	3618.03
173.95	3465.2
174.65	3510.36
175.35	3579.74
176.05	3622.73
176.75	3539.33
177.45	3551.71
178.15	3556.44
178.85	3559.99
179.55	3598.81
180.25	3551.99
180.95	3555.48
181.65	3533.16
182.35	3467.37
183.05	3528.72
183.75	3573.74
184.45	3530.64
185.15	3525.81
185.85	3501.57
186.55	3520.84
187.25	3506.71
187.95	3432.3
188.65	3564.76
189.35	3616.83
190.05	3552.5
190.75	3675.82
191.45	3478.2
192.15	3570.89
192.85	3632
193.55	3513.47
194.25	3558.04
194.95	3600.75
195.65	3487.37
196.35	3459.75
197.05	3545.25
197.75	3568.01
198.45	3609.34
199.15	3699.53
199.85	3681.19
200.55	3654.11
201.25	3619.5
201.95	3755.94
202.65	3617.78
203.35	3583.05
204.05	3698.04
204.75	3671.54
205.45	3602.72
206.15	3677.24
206.85	3711.72
207.55	3602.79
208.25	3689.73
208.95	3599.66
209.65	3659.53
210.35	3700.14
211.05	3728.47
211.75	3718.41
212.45	3709.14
213.15	3748.03
213.85	3717.86
214.55	3681.39
215.25	3774.18
215.95	3675.6
216.65	3772.42
217.35	3825.56
218.05	3761.02
218.75	3711.1
219.45	3649.83
220.15	3612.29
220.85	3724.05
221.55	3724.07
222.25	3722.62
222.95	3757.34
223.65	3662.13
224.35	3766.95
225.05	3649.36
225.75	3698.56
226.45	3648.14
227.15	3719.75
227.85	3729.87
228.55	3741.05
229.25	3678.81
229.95	3712.02
230.65	3725.75
231.35	3881.64
232.05	3744.67
232.75	3752.45
233.45	3859.92
234.15	3796.07
234.85	3842.26
235.55	3841.51
236.25	3792.35
236.95	3865.61
237.65	3902.5
238.35	3873.55
239.05	3877.53
239.75	3889.75
240.45	3882.65
241.15	3806.75
241.85	3755.68
242.55	3830.88
243.25	3859.93
243.95	3834.37
244.65	3860.89
245.35	3848.85
246.05	3822.27
246.75	3830.96
247.45	3845.94
248.15	3789.31
248.85	3826.64
249.55	3897.74
250.25	3836.39
250.95	3853.05
251.65	3813.17
252.35	3770.23
253.05	3914.32
253.75	3866.42
254.45	3865.21
255.15	3763.16
255.85	3852.87
256.55	3802.26
257.25	3828.48
257.95	3880.24
258.65	3884.96
259.35	3905.58
260.05	3864.77
260.75	3861.64
261.45	3885.52
262.15	4045.35
262.85	3989.74
263.55	4037.09
264.25	3890.6
264.95	3803.17
265.65	3849
266.35	3999.05
267.05	3984.79
267.75	3892.86
268.45	3953.7
269.15	3937.19
269.85	3911.24
270.55	4030.99
271.25	4045.34
271.95	4032.18
272.65	4051.92
273.35	3896.9
274.05	3946.13
274.75	3860.99
275.45	3921.48
276.15	3878.83
276.85	3859.54
277.55	3986.8
278.25	3949.82
278.95	4050.66
279.65	3995.17
280.35	3983.22
281.05	3964.5
281.75	4097.46
282.45	4045.27
283.15	3894.79
283.85	3953.97
284.55	3965.14
285.25	3961.08
285.95	4040.22
286.65	3978.14
287.35	3992.45
288.05	3991.58
288.75	3977.48
289.45	4006.05
290.15	4029.65
290.85	4020.56
291.55	4042
292.25	3947.96
292.95	4018.49
293.65	3981.7
294.35	4172.88
295.05	4142.07
295.75	4085.14
296.45	4074.08
297.15	4152.32
297.85	3912.03
298.55	4047.73
299.25	3964.14
299.95	4080.58
300.65	4067.91
301.35	4182.97
302.05	4074.69
302.75	4078.42
303.45	4064.94
304.15	4037.31
304.85	4034.01
305.55	4136.12
306.25	4056.27
306.95	4063.53
307.65	3988.63
308.35	3966.59
309.05	4050.21
309.75	4093.8
310.45	3972.6
311.15	4048.42
311.85	3986.49
312.55	4167.41
313.25	4082.62
313.95	4133.46
314.65	3954.01
315.35	4031.58
316.05	4186.93
316.75	4052.05
317.45	4120.48
318.15	4048.98
318.85	4132
319.55	4164.22
320.25	4002.27
320.95	4125.8
321.65	4040.03
322.35	4094.89
323.05	4236.33
323.75	4161.26
324.45	4147.35
325.15	4128.95
325.85	4089.67
326.55	3955.99
327.25	4130.56
327.95	4113.18
328.65	4033.41
329.35	4042.15
330.05	4001.72
330.75	4077.22
331.45	4051.13
332.15	4187.69
332.85	4171.52
333.55	4192.59
334.25	4037.9
334.95	4018.45
335.65	3999.29
336.35	4079.66
337.05	4187.91
337.75	4123.09
338.45	4074.53
339.15	4116.78
339.85	4156.77
340.55	4082.2
341.25	4024.29
341.95	4178.74
342.65	4054.62
343.35	4050.58
344.05	4066.34
344.75	4026.77
345.45	4032.77
346.15	4169.63
346.85	4027.86
347.55	4085.89
348.25	4053.88
348.95	4104.85
349.65	3950.42
350.35	3980.93
351.05	3959.16
351.75	3960.45
352.45	4066.07
353.15	4150.01
353.85	4091.59
354.55	4041.55
355.25	4038.03
355.95	4055.16
356.65	4122.67
357.35	4214.13
358.05	4062.82
358.75	4117.22
359.45	4098.36
360.15	4085.6
360.85	4172.32
361.55	4119.51
362.25	4136.86
362.95	4127.65
363.65	4042.67
364.35	4039.27
365.05	4215.52
365.75	4111.22
366.45	4112.87
367.15	4149.63
367.85	4051.14
368.55	4069.51
369.25	4059.59
369.95	4156.33
370.65	4063.6
371.35	4067.41
372.05	4078.97
372.75	4038.76
373.45	4122.89
374.15	4188.78
374.85	4086.83
375.55	4148.72
376.25	4160.38
376.95	4203.57
377.65	4223.74
378.35	4125.05
379.05	4037.07
379.75	4192.31
380.45	4052.6
381.15	4027.33
381.85	4061.17
382.55	4211.79
383.25	4225.62
383.95	4142.31
384.65	4140.75
385.35	4186.68
386.05	4239.95
386.75	4150.17
387.45	4188.9
388.15	4178.67
388.85	4122.54
389.55	4115.47
390.25	4113.46
390.95	4031.66
391.65	4066.09
392.35	4014.28
393.05	4157.31
393.75	4145.66
394.45	4114.48
395.15	4175.56
395.85	4126.77
396.55	4115.46
397.25	4101.97
397.95	4184.84
398.65	4083.63
399.35	4102.64
400.05	4195.65
400.75	4058.37
401.45	4074.04
402.15	4224.26
402.85	4200.96
403.55	4218.43
404.25	4406.48
404.95	4270.07
405.65	4054.62
406.35	4138.1
407.05	4100.45
407.75	4229.26
408.45	4240.75
409.15	4153.25
409.85	4222.84
410.55	4115.61
411.25	4202.12
411.95	4142.88
412.65	4100.43
413.35	4190.15
414.05	4133.57
414.75	4105.89
415.45	4174.3
416.15	4211.22
416.85	4206.76
417.55	4252.4
418.25	4282.51
418.95	4207.4
419.65	4286.23
420.35	4225.45
421.05	4212.24
421.75	4185.72
422.45	4206.16
423.15	4154.77
423.85	4253.44
424.55	4270.99
425.25	4172.71
425.95	4175.48
426.65	4206.1
427.35	4437.83
428.05	4331.79
428.75	4345.56
429.45	4360.24
430.15	4353.79
430.85	4319.8
431.55	4174.79
432.25	4214.93
432.95	4191.25
433.65	4186
434.35	4205.66
435.05	4130.56
435.75	4136.28
436.45	4119.27
437.15	4170.1
437.85	4147.27
438.55	4227.97
439.25	4113.25
439.95	4298.69
440.65	4228.59
441.35	4169.72
442.05	4145.1
442.75	4252.51
443.45	4182.23
444.15	4127.59
444.85	4189.06
445.55	4295.08
446.25	4271.25
446.95	4293.9
447.65	4301.17
448.35	4243.12
449.05	4232.8
449.75	4299.34
450.45	4350.47
451.15	4265.91
451.85	4298.86
452.55	4380.98
453.25	4265.52
453.95	4309.95
454.65	4332.3
455.35	4272.3
456.05	4332.7
456.75	4423.69
457.45	4249.91
458.15	4311.62
458.85	4345.22
459.55	4305.16
460.25	4291.96
460.95	4474.69
461.65	4383.88
462.35	4361.21
463.05	4383.81
463.75	4387.57
464.45	4342.14
465.15	4466.63
465.85	4447.65
466.55	4472.5
467.25	4417.22
467.95	4388.55
468.65	4342.49
469.35	4371.09
470.05	4289.02
470.75	4506.07
471.45	4354.01
472.15	4378.04
472.85	4360.14
473.55	4429.36
474.25	4344.69
474.95	4303.3
475.65	4391.38
476.35	4331.02
477.05	4401.58
477.75	4407.36
478.45	4370.62
479.15	4303.54
479.85	4307.12
480.55	4330.55
481.25	4297.18
481.95	4357.35
482.65	4400.94
483.35	4327.8
484.05	4399.04
484.75	4468.24
485.45	4469.83
486.15	4431.06
486.85	4411.59
487.55	4538.17
488.25	4466.43
488.95	4527.15
489.65	4508.41
490.35	4548.76
491.05	4485.21
491.75	4443.47
492.45	4436.2
493.15	4440.84
493.85	4459.11
494.55	4509.61
495.25	4449.19
495.95	4406.87
496.65	4412.49
497.35	4541.6
498.05	4449.99
498.75	4502.91
499.45	4487.64
500.15	4494.56
500.85	4396.85
501.55	4364.14
502.25	4463.9
502.95	4482.52
503.65	4516.28
504.35	4382.22
505.05	4448.5
505.75	4455.85
506.45	4604.77
507.15	4587.76
507.85	4515.51
508.55	4527.96
509.25	4468.75
509.95	4497.26
510.65	4472.49
511.35	4446.88
512.05	4450.17
512.75	4481.85
513.45	4603.3
514.15	4494.68
514.85	4620.17
515.55	4624.65
516.25	4646.12
516.95	4555.62
517.65	4612.48
518.35	4493.38
519.05	4471.98
519.75	4534.76
520.45	4644
521.15	4618.16
521.85	4717.88
522.55	4702.46
523.25	4685.57
523.95	4765.37
524.65	4690.77
525.35	4702.68
526.05	4669.26
526.75	4664.81
527.45	4687.41
528.15	4785.88
528.85	4735.32
529.55	4757.29
530.25	4785.88
530.95	4740.02
531.65	4894.45
532.35	4831.76
533.05	4798.53
533.75	4724
534.45	4661.77
535.15	4755.74
535.85	4767.21
536.55	4742.3
537.25	4834.62
537.95	4772.77
538.65	4722.49
539.35	4734.32
540.05	4728.81
540.75	4803.23
541.45	4807.22
542.15	4811.74
542.85	4832.1
543.55	4817.94
544.25	4955.28
544.95	4917.48
545.65	4843.08
546.35	4863.78
547.05	4954.05
547.75	4939.78
548.45	5024.84
549.15	4935.52
549.85	4989.75
550.55	4933.25
551.25	4967.14
551.95	4977.7
552.65	4992.14
553.35	4984.9
554.05	4967.89
554.75	4950.45
555.45	5016.03
556.15	5139.62
556.85	5045.2
557.55	5075.58
558.25	5116.07
558.95	5068.96
559.65	5101.96
560.35	5155.93
561.05	5249.18
561.75	5215.39
562.45	5279.37
563.15	5313.97
563.85	5355.77
564.55	5289.43
565.25	5337.49
565.95	5334.38
566.65	5390.06
567.35	5346.92
568.05	5413.94
568.75	5382.57
569.45	5415.81
570.15	5363.14
570.85	5474.33
571.55	5472.06
572.25	5606.93
572.95	5608.82
573.65	5596.19
574.35	5575.33
575.05	5518.34
575.75	5720.74
576.45	5637.04
577.15	5732.68
577.85	5802.56
578.55	5786.89
579.25	5760.89
579.95	5777.84
580.65	5859.75
581.35	5890.7
582.05	6028.85
582.75	6044.67
583.45	6243.31
584.15	6147.06
584.85	6116.14
585.55	6200.71
586.25	6327.39
586.95	6361.9
587.65	6321.78
588.35	6435.03
589.05	6454.17
589.75	6524.63
590.45	6632.43
591.15	6667.44
591.85	6767.05
592.55	6901.29
593.25	7013.48
593.95	7139.14
594.65	7150.81
595.35	7273.84
596.05	7303.93
596.75	7441.72
597.45	7628.15
598.15	7731.76
598.85	7762.41
599.55	7315.8
600.25	362.862
600.95	0
601.65	0
602.35	0
603.05	0
603.75	0
604.45	0
605.15	0
605.85	0
606.55	0
607.25	0
607.95	0
608.65	0
609.35	0
610.05	0
610.75	0
611.45	0
612.15	0
612.85	0
613.55	0
614.25	0
614.95	0
615.65	0
616.35	0
617.05	0
617.75	0
618.45	0
619.15	0
619.85	0
620.55	0
621.25	0
621.95	0
622.65	0
623.35	0
624.05	0
624.75	0
625.45	0
626.15	0
626.85	0
627.55	0
628.25	0
628.95	0
629.65	0
630.35	0
631.05	0
631.75	0
632.45	0
633.15	0
633.85	0
634.55	0
635.25	0
635.95	0
636.65	0
637.35	0
638.05	0
638.75	0
639.45	0
640.15	0
640.85	0
641.55	0
642.25	0
642.95	0
643.65	0
644.35	0
645.05	0
645.75	0
646.45	0
647.15	0
647.85	0
648.55	0
649.25	0
649.95	0
650.65	0
651.35	0
652.05	0
652.75	0
653.45	0
654.15	0
654.85	0
655.55	0
656.25	0
656.95	0
657.65	0
658.35	0
659.05	0
659.75	0
660.45	0
661.15	0
661.85	0
662.55	0
663.25	0
663.95	0
664.65	0
665.35	0
666.05	0
666.75	0
667.45	0
668.15	0
668.85	0
669.55	0
670.25	0
670.95	0
671.65	0
672.35	0
673.05	0
673.75	0
674.45	0
675.15	0
675.85	0
676.55	0
677.25	0
677.95	0
678.65	0
679.35	0
680.05	0
680.75	0
681.45	0
682.15	0
682.85	0
683.55	0
684.25	0
684.95	0
685.65	0
686.35	0
687.05	0
687.75	0
688.45	0
689.15	0
689.85	0
690.55	0
691.25	0
691.95	0
692.65	0
693.35	0
694.05	0
694.75	0
695.45	0
696.15	0
696.85	0
697.55	0
698.25	0
698.95	0
699.65	0
