{
        "particle": "proton",
        "energy": "400 MeV",
        "Zmin": "0*m",
        "Zmax": "0.7*m",
        "bins": "1000",
        "SetCutValue": "0.01*mm"
}


# Z (mm) 	 Energy Deposition (MeV)
0.35	0
1.05	0
1.75	0
2.45	0
3.15	0
3.85	0
4.55	0
5.25	0
5.95	0
6.65	0
7.35	0
8.05	0
8.75	0
9.45	0
10.15	0
10.85	0
11.55	0
12.25	0
12.95	0
13.65	0
14.35	0
15.05	0
15.75	0
16.45	0
17.15	0
17.85	0
18.55	0
19.25	0
19.95	0
20.65	0
21.35	0
22.05	0
22.75	0
23.45	0
24.15	0
24.85	0
25.55	0
26.25	0
26.95	0
27.65	0
28.35	0
29.05	0
29.75	0
30.45	0
31.15	0
31.85	0
32.55	0
33.25	0
33.95	0
34.65	0
35.35	0
36.05	0
36.75	0
37.45	0
38.15	0
38.85	0
39.55	0
40.25	0
40.95	0
41.65	0
42.35	0
43.05	0
43.75	0
44.45	0
45.15	0
45.85	0
46.55	0
47.25	0
47.95	0
48.65	0
49.35	0
50.05	0
50.75	0
51.45	0
52.15	0
52.85	0
53.55	0
54.25	0
54.95	0
55.65	0
56.35	0
57.05	0
57.75	0
58.45	0
59.15	0
59.85	0
60.55	0
61.25	0
61.95	0
62.65	0
63.35	0
64.05	0
64.75	0
65.45	0
66.15	0
66.85	0
67.55	0
68.25	0
68.95	0
69.65	0
70.35	0
71.05	0
71.75	0
72.45	0
73.15	0
73.85	0
74.55	0
75.25	0
75.95	0
76.65	0
77.35	0
78.05	0
78.75	0
79.45	0
80.15	0
80.85	0
81.55	0
82.25	0
82.95	0
83.65	0
84.35	0
85.05	0
85.75	0
86.45	0
87.15	0
87.85	0
88.55	0
89.25	0
89.95	0
90.65	0
91.35	0
92.05	0
92.75	0
93.45	0
94.15	0
94.85	0
95.55	0
96.25	0
96.95	0
97.65	0
98.35	0
99.05	0
99.75	2960.91
100.45	2472.58
101.15	2473.11
101.85	2511.63
102.55	2438.89
103.25	2425.94
103.95	2550.84
104.65	2568.94
105.35	2560.85
106.05	2683.69
106.75	2545.25
107.45	2579.78
108.15	2551.83
108.85	2557.37
109.55	2578.94
110.25	2620.06
110.95	2661.76
111.65	2574.85
112.35	2657.22
113.05	2662.16
113.75	2686.19
114.45	2669.5
115.15	2616.41
115.85	2661.52
116.55	2680.22
117.25	2747.82
117.95	2623.89
118.65	2928.56
119.35	2708.2
120.05	2725.68
120.75	2776.07
121.45	2673.47
122.15	2719.51
122.85	2708.1
123.55	2820.24
124.25	2779.9
124.95	2917.68
125.65	2833.75
126.35	2804.54
127.05	2799.71
127.75	2773.19
128.45	2857.02
129.15	2773.13
129.85	2796.95
130.55	2798.16
131.25	2781.72
131.95	2795
132.65	2843.49
133.35	2854.41
134.05	2749.04
134.75	2735.78
135.45	2800.35
136.15	2831.8
136.85	2859.56
137.55	2901.9
138.25	2841.26
138.95	2808.81
139.65	2815.52
140.35	2769.13
141.05	2949.55
141.75	2851.18
142.45	2882.86
143.15	2871.87
143.85	2851.2
144.55	2849.01
145.25	2923.49
145.95	2812.11
146.65	2983.44
147.35	2854.57
148.05	2818.86
148.75	2858.78
149.45	2924.31
150.15	2969.49
150.85	3013.21
151.55	2925.98
152.25	2957.89
152.95	2865.3
153.65	2868.46
154.35	2925.88
155.05	2972.96
155.75	3010.71
156.45	3087.87
157.15	2983.16
157.85	2930.96
158.55	3067.66
159.25	3073.56
159.95	3197.76
160.65	3128.36
161.35	3024.73
162.05	3037.55
162.75	3036.99
163.45	3038.92
164.15	2933.12
164.85	3124.33
165.55	2998.13
166.25	3035.01
166.95	3052.8
167.65	3098.32
168.35	3101.48
169.05	3103.59
169.75	3212.72
170.45	3078.82
171.15	3074.82
171.85	3093.23
172.55	3100.98
173.25	3066.46
173.95	3008.82
174.65	3198.67
175.35	3098.47
176.05	3054
176.75	3072.23
177.45	2977.44
178.15	3082.35
178.85	3047.58
179.55	3168.6
180.25	2993.96
180.95	3114.47
181.65	2991.84
182.35	3125
183.05	3098.34
183.75	3109.1
184.45	3233.47
185.15	3083.85
185.85	3084.87
186.55	3081.59
187.25	3064.31
187.95	3176.57
188.65	3121.2
189.35	3117.79
190.05	3071.14
190.75	3144
191.45	3165.52
192.15	3079.87
192.85	3193.53
193.55	3173.11
194.25	3110.18
194.95	3047.61
195.65	3129.01
196.35	3210.81
197.05	3148.77
197.75	3184.64
198.45	3176.13
199.15	3306.52
199.85	3175.68
200.55	3069.13
201.25	3250
201.95	3085.56
202.65	3192.54
203.35	3175.31
204.05	3221.87
204.75	3304.52
205.45	3285.07
206.15	3272.87
206.85	3234.8
207.55	3301.47
208.25	3221.93
208.95	3204.56
209.65	3290.33
210.35	3226.48
211.05	3163.25
211.75	3180.61
212.45	3217.61
213.15	3203.48
213.85	3233.19
214.55	3182.07
215.25	3410.62
215.95	3254.51
216.65	3222
217.35	3260.38
218.05	3261.55
218.75	3189.08
219.45	3289.72
220.15	3256.7
220.85	3245.7
221.55	3293.16
222.25	3203.4
222.95	3187.65
223.65	3295.79
224.35	3161.09
225.05	3166.75
225.75	3108.39
226.45	3144.13
227.15	3165.46
227.85	3146.84
228.55	3177.78
229.25	3154.37
229.95	3268.45
230.65	3229.02
231.35	3174.73
232.05	3210.18
232.75	3203.5
233.45	3174.08
234.15	3128.32
234.85	3185.38
235.55	3237.51
236.25	3284.97
236.95	3260.72
237.65	3274.96
238.35	3206.23
239.05	3176.75
239.75	3230.12
240.45	3256.35
241.15	3236.79
241.85	3391.5
242.55	3291.54
243.25	3334.31
243.95	3262.48
244.65	3282.25
245.35	3306.75
246.05	3322.98
246.75	3210.01
247.45	3167.78
248.15	3254.51
248.85	3257.79
249.55	3162.81
250.25	3302.34
250.95	3192.09
251.65	3279.29
252.35	3354.82
253.05	3222.5
253.75	3275.09
254.45	3198.71
255.15	3353.84
255.85	3299.12
256.55	3391.43
257.25	3349.58
257.95	3311.73
258.65	3330.72
259.35	3207.88
260.05	3227.9
260.75	3297.49
261.45	3225.25
262.15	3244.49
262.85	3403.24
263.55	3264.16
264.25	3306.17
264.95	3398.54
265.65	3207.11
266.35	3245.77
267.05	3305.04
267.75	3225.08
268.45	3339.67
269.15	3270.27
269.85	3288.6
270.55	3385.4
271.25	3408.57
271.95	3461.64
272.65	3384.05
273.35	3366.62
274.05	3323.38
274.75	3413.7
275.45	3280.29
276.15	3316.76
276.85	3374.81
277.55	3333
278.25	3239.36
278.95	3302.63
279.65	3418.84
280.35	3430.04
281.05	3270.95
281.75	3297.71
282.45	3332.66
283.15	3441.04
283.85	3483.68
284.55	3489.74
285.25	3561.79
285.95	3412.59
286.65	3436.18
287.35	3392.17
288.05	3405.51
288.75	3412.47
289.45	3417.72
290.15	3592.93
290.85	3441.42
291.55	3425.55
292.25	3482.09
292.95	3559.06
293.65	3412.94
294.35	3447.4
295.05	3387.64
295.75	3369.95
296.45	3306.84
297.15	3259.36
297.85	3367.43
298.55	3295.78
299.25	3569.91
299.95	3420.22
300.65	3255.11
301.35	3270.17
302.05	3303.65
302.75	3368.57
303.45	3343.76
304.15	3361.86
304.85	3303.29
305.55	3395.62
306.25	3410.22
306.95	3377.03
307.65	3393.78
308.35	3331.15
309.05	3395.65
309.75	3395.38
310.45	3457.43
311.15	3475.77
311.85	3533.57
312.55	3253.4
313.25	3326.56
313.95	3397.79
314.65	3362.77
315.35	3394.62
316.05	3448.6
316.75	3458.86
317.45	3566.5
318.15	3420.12
318.85	3370.35
319.55	3269.75
320.25	3337.39
320.95	3336.32
321.65	3507.03
322.35	3401.03
323.05	3328.05
323.75	3318.61
324.45	3459.4
325.15	3384.88
325.85	3430.17
326.55	3378.73
327.25	3285.72
327.95	3543.17
328.65	3420.75
329.35	3439.36
330.05	3371.99
330.75	3356.01
331.45	3499.54
332.15	3527.64
332.85	3475.47
333.55	3453.66
334.25	3522.22
334.95	3645.1
335.65	3630.02
336.35	3563.37
337.05	3500.44
337.75	3529.65
338.45	3490.04
339.15	3421.1
339.85	3410.68
340.55	3517.83
341.25	3424.19
341.95	3541.5
342.65	3500.93
343.35	3448.6
344.05	3503.43
344.75	3475.2
345.45	3463.67
346.15	3501.05
346.85	3437.61
347.55	3502.88
348.25	3411.59
348.95	3424.51
349.65	3469.67
350.35	3539.36
351.05	3575.76
351.75	3497.21
352.45	3456.62
353.15	3502.06
353.85	3452.72
354.55	3462.56
355.25	3459.11
355.95	3531.28
356.65	3461.11
357.35	3422.17
358.05	3455.83
358.75	3537.03
359.45	3570.79
360.15	3588.15
360.85	3496.42
361.55	3602.21
362.25	3405.89
362.95	3460.27
363.65	3436.92
364.35	3449.94
365.05	3419.73
365.75	3415.72
366.45	3445.01
367.15	3491.65
367.85	3489.99
368.55	3405.26
369.25	3458.48
369.95	3538.89
370.65	3496.48
371.35	3491
372.05	3574.61
372.75	3506.08
373.45	3487.99
374.15	3400.55
374.85	3426.41
375.55	3372.14
376.25	3564.31
376.95	3578.02
377.65	3578.96
378.35	3521.07
379.05	3535.63
379.75	3477.06
380.45	3597.24
381.15	3591.04
381.85	3599.97
382.55	3600.67
383.25	3573.35
383.95	3427.83
384.65	3377.49
385.35	3423.82
386.05	3469.61
386.75	3448.08
387.45	3517.51
388.15	3408.44
388.85	3435.59
389.55	3502.12
390.25	3523.13
390.95	3509.74
391.65	3536.49
392.35	3499.15
393.05	3563.03
393.75	3627.61
394.45	3502.19
395.15	3534.25
395.85	3475.84
396.55	3488.4
397.25	3489.53
397.95	3498.6
398.65	3474.61
399.35	3564.87
400.05	3580.58
400.75	3614.21
401.45	3510.28
402.15	3524.72
402.85	3561.76
403.55	3481.07
404.25	3536.66
404.95	3507.86
405.65	3541.41
406.35	3514.81
407.05	3659.56
407.75	3517.45
408.45	3480.3
409.15	3542.23
409.85	3521.12
410.55	3555.63
411.25	3588.86
411.95	3514.08
412.65	3440.84
413.35	3493.96
414.05	3573.97
414.75	3492.02
415.45	3446.82
416.15	3455.82
416.85	3449.24
417.55	3459.47
418.25	3450.73
418.95	3480.24
419.65	3402.85
420.35	3446.21
421.05	3488.56
421.75	3580.57
422.45	3440.04
423.15	3408.43
423.85	3454.42
424.55	3527.34
425.25	3542.63
425.95	3642.43
426.65	3557.34
427.35	3587.64
428.05	3589.44
428.75	3489.77
429.45	3636.24
430.15	3526.8
430.85	3561.73
431.55	3648.33
432.25	3541.06
432.95	3603.66
433.65	3528.17
434.35	3620.89
435.05	3569.58
435.75	3541.5
436.45	3614.25
437.15	3527.97
437.85	3455.98
438.55	3519.51
439.25	3576.32
439.95	3585.79
440.65	3539.96
441.35	3546.43
442.05	3579.14
442.75	3614.33
443.45	3554.41
444.15	3478.4
444.85	3550.42
445.55	3548.69
446.25	3506.47
446.95	3519.8
447.65	3552.49
448.35	3547.87
449.05	3532.8
449.75	3473.32
450.45	3534.2
451.15	3585.23
451.85	3535.38
452.55	3510.93
453.25	3503.08
453.95	3548.97
454.65	3538.96
455.35	3511.31
456.05	3568.49
456.75	3530.37
457.45	3634.75
458.15	3671.44
458.85	3590.61
459.55	3628.02
460.25	3562.21
460.95	3512.54
461.65	3493.8
462.35	3482.73
463.05	3517.64
463.75	3549.82
464.45	3560.01
465.15	3527.24
465.85	3551.81
466.55	3529.84
467.25	3473.16
467.95	3556.72
468.65	3521.75
469.35	3598.7
470.05	3549.99
470.75	3574.39
471.45	3460.02
472.15	3486.14
472.85	3513.08
473.55	3561.4
474.25	3523.88
474.95	3607.84
475.65	3623.14
476.35	3491.03
477.05	3597.11
477.75	3501.96
478.45	3757.76
479.15	3585.52
479.85	3549.2
480.55	3595.27
481.25	3480.12
481.95	3587.65
482.65	3450.09
483.35	3588.59
484.05	3553.4
484.75	3517.64
485.45	3531.64
486.15	3504
486.85	3602.16
487.55	3535.93
488.25	3569.82
488.95	3655.41
489.65	3607.87
490.35	3666.22
491.05	3673.88
491.75	3829.63
492.45	3651.98
493.15	3614.89
493.85	3569.92
494.55	3543.25
495.25	3634.85
495.95	3646.32
496.65	3545.3
497.35	3561.77
498.05	3705.73
498.75	3505.25
499.45	3509.61
500.15	3555.77
500.85	3504.79
501.55	3628.28
502.25	3635.55
502.95	3567.57
503.65	3719.62
504.35	3525.96
505.05	3543.15
505.75	3494.77
506.45	3452.35
507.15	3631.89
507.85	3461.03
508.55	3468.45
509.25	3609.06
509.95	3465.23
510.65	3461.75
511.35	3487.27
512.05	3498.06
512.75	3403.87
513.45	3440.51
514.15	3392.34
514.85	3400.04
515.55	3458.77
516.25	3462.16
516.95	3456.53
517.65	3441.38
518.35	3454.94
519.05	3385.04
519.75	3457.84
520.45	3579.89
521.15	3492.9
521.85	3480.8
522.55	3377.06
523.25	3383.06
523.95	3390.76
524.65	3379.33
525.35	3358.5
526.05	3446.88
526.75	3396.42
527.45	3422.45
528.15	3478.39
528.85	3340.61
529.55	3440.77
530.25	3536.08
530.95	3464.38
531.65	3625.13
532.35	3545.78
533.05	3561.8
533.75	3448.7
534.45	3485.02
535.15	3459.72
535.85	3530.15
536.55	3471.33
537.25	3464.29
537.95	3461.29
538.65	3620.51
539.35	3632.14
540.05	3550.76
540.75	3534.39
541.45	3442.62
542.15	3442.67
542.85	3561
543.55	3470.43
544.25	3496.96
544.95	3495.3
545.65	3596.4
546.35	3551.37
547.05	3596.13
547.75	3582.31
548.45	3622.96
549.15	3623.44
549.85	3593.48
550.55	3655.1
551.25	3527.08
551.95	3574.28
552.65	3636.6
553.35	3528.59
554.05	3468.98
554.75	3596.42
555.45	3583.27
556.15	3592.02
556.85	3556.42
557.55	3513.47
558.25	3566.8
558.95	3563.77
559.65	3618.92
560.35	3551.59
561.05	3618.05
561.75	3528.51
562.45	3508.56
563.15	3562.74
563.85	3602.82
564.55	3511.08
565.25	3545.73
565.95	3511.25
566.65	3437.4
567.35	3439.78
568.05	3665.23
568.75	3441.93
569.45	3468.53
570.15	3446.51
570.85	3447.1
571.55	3544.54
572.25	3521.7
572.95	3456.86
573.65	3482.88
574.35	3510.87
575.05	3556.06
575.75	3425.99
576.45	3476.76
577.15	3548.89
577.85	3542.28
578.55	3478.46
579.25	3493.67
579.95	3444.5
580.65	3446.06
581.35	3424.88
582.05	3530.52
582.75	3444.5
583.45	3457.43
584.15	3634.52
584.85	3520.58
585.55	3503.02
586.25	3493.76
586.95	3439.33
587.65	3562.65
588.35	3579.5
589.05	3511.75
589.75	3524.49
590.45	3484.19
591.15	3514.6
591.85	3549.84
592.55	3535.39
593.25	3486.61
593.95	3488.97
594.65	3515.11
595.35	3481.73
596.05	3386.63
596.75	3541.8
597.45	3481.79
598.15	3426.11
598.85	3193.35
599.55	2353.54
600.25	87.4773
600.95	0
601.65	0
602.35	0
603.05	0
603.75	0
604.45	0
605.15	0
605.85	0
606.55	0
607.25	0
607.95	0
608.65	0
609.35	0
610.05	0
610.75	0
611.45	0
612.15	0
612.85	0
613.55	0
614.25	0
614.95	0
615.65	0
616.35	0
617.05	0
617.75	0
618.45	0
619.15	0
619.85	0
620.55	0
621.25	0
621.95	0
622.65	0
623.35	0
624.05	0
624.75	0
625.45	0
626.15	0
626.85	0
627.55	0
628.25	0
628.95	0
629.65	0
630.35	0
631.05	0
631.75	0
632.45	0
633.15	0
633.85	0
634.55	0
635.25	0
635.95	0
636.65	0
637.35	0
638.05	0
638.75	0
639.45	0
640.15	0
640.85	0
641.55	0
642.25	0
642.95	0
643.65	0
644.35	0
645.05	0
645.75	0
646.45	0
647.15	0
647.85	0
648.55	0
649.25	0
649.95	0
650.65	0
651.35	0
652.05	0
652.75	0
653.45	0
654.15	0
654.85	0
655.55	0
656.25	0
656.95	0
657.65	0
658.35	0
659.05	0
659.75	0
660.45	0
661.15	0
661.85	0
662.55	0
663.25	0
663.95	0
664.65	0
665.35	0
666.05	0
666.75	0
667.45	0
668.15	0
668.85	0
669.55	0
670.25	0
670.95	0
671.65	0
672.35	0
673.05	0
673.75	0
674.45	0
675.15	0
675.85	0
676.55	0
677.25	0
677.95	0
678.65	0
679.35	0
680.05	0
680.75	0
681.45	0
682.15	0
682.85	0
683.55	0
684.25	0
684.95	0
685.65	0
686.35	0
687.05	0
687.75	0
688.45	0
689.15	0
689.85	0
690.55	0
691.25	0
691.95	0
692.65	0
693.35	0
694.05	0
694.75	0
695.45	0
696.15	0
696.85	0
697.55	0
698.25	0
698.95	0
699.65	0
