{
    "particle": "proton",
    "energy": "128 MeV",
    "Zmin": "0*m",
    "Zmax": "0.7*m",
    "bins": "1000",
    "SetCutValue": "0.01*mm"
}


# Z (mm) 	 Energy Deposition (MeV)
0.35	0
1.05	0
1.75	0
2.45	0
3.15	0
3.85	0
4.55	0
5.25	0
5.95	0
6.65	0
7.35	0
8.05	0
8.75	0
9.45	0
10.15	0
10.85	0
11.55	0
12.25	0
12.95	0
13.65	0
14.35	0
15.05	0
15.75	0
16.45	0
17.15	0
17.85	0
18.55	0
19.25	0
19.95	0
20.65	0
21.35	0
22.05	0
22.75	0
23.45	0
24.15	0
24.85	0
25.55	0
26.25	0
26.95	0
27.65	0
28.35	0
29.05	0
29.75	0
30.45	0
31.15	0
31.85	0
32.55	0
33.25	0
33.95	0
34.65	0
35.35	0
36.05	0
36.75	0
37.45	0
38.15	0
38.85	0
39.55	0
40.25	0
40.95	0
41.65	0
42.35	0
43.05	0
43.75	0
44.45	0
45.15	0
45.85	0
46.55	0
47.25	0
47.95	0
48.65	0
49.35	0
50.05	0
50.75	0
51.45	0
52.15	0
52.85	0
53.55	0
54.25	0
54.95	0
55.65	0
56.35	0
57.05	0
57.75	0
58.45	0
59.15	0
59.85	0
60.55	0
61.25	0
61.95	0
62.65	0
63.35	0
64.05	0
64.75	0
65.45	0
66.15	0
66.85	0
67.55	0
68.25	0
68.95	0
69.65	0
70.35	0
71.05	0
71.75	0
72.45	0
73.15	0
73.85	0
74.55	0
75.25	0
75.95	0
76.65	0
77.35	0
78.05	0
78.75	0
79.45	0
80.15	0
80.85	0
81.55	0
82.25	0
82.95	0
83.65	0
84.35	0
85.05	0
85.75	0
86.45	0
87.15	0
87.85	0
88.55	0
89.25	0
89.95	0
90.65	0
91.35	0
92.05	0
92.75	0
93.45	0
94.15	0
94.85	0
95.55	0
96.25	0
96.95	0
97.65	0
98.35	0
99.05	0
99.75	3111.86
100.45	5058.66
101.15	5068.38
101.85	5159.36
102.55	5131.53
103.25	5180.66
103.95	5149.81
104.65	5264.46
105.35	5289.21
106.05	5254.79
106.75	5341.75
107.45	5257.46
108.15	5379.37
108.85	5327.55
109.55	5398.66
110.25	5448.23
110.95	5517.56
111.65	5444.06
112.35	5464.47
113.05	5386.99
113.75	5552.81
114.45	5567.79
115.15	5547.02
115.85	5679.07
116.55	5588.17
117.25	5692.92
117.95	5619.68
118.65	5549.3
119.35	5751.2
120.05	5652.7
120.75	5695.69
121.45	5723.9
122.15	5681.49
122.85	5769.96
123.55	5760.76
124.25	5864.76
124.95	5811.35
125.65	5868.33
126.35	5811.51
127.05	5852.66
127.75	5880.79
128.45	5959.35
129.15	5943.49
129.85	5966.75
130.55	5945.99
131.25	5986.67
131.95	5979.9
132.65	6033.64
133.35	6046.99
134.05	6104.08
134.75	6116.99
135.45	6170.24
136.15	6262.44
136.85	6143.4
137.55	6125.47
138.25	6179.57
138.95	6153.24
139.65	6234.47
140.35	6204.91
141.05	6306.95
141.75	6324.9
142.45	6302.43
143.15	6395.1
143.85	6348.89
144.55	6272.67
145.25	6395.5
145.95	6449.34
146.65	6465.92
147.35	6574.93
148.05	6616.97
148.75	6545.51
149.45	6657.1
150.15	6665.84
150.85	6655.51
151.55	6764.6
152.25	6650.71
152.95	6795.33
153.65	6696.97
154.35	6781.38
155.05	6803.57
155.75	6907.99
156.45	6910.43
157.15	6915.32
157.85	6864.81
158.55	6936.82
159.25	6953.01
159.95	7013.41
160.65	6985.73
161.35	7088.68
162.05	7132.91
162.75	7226.46
163.45	7248.21
164.15	7293.74
164.85	7202.55
165.55	7282.35
166.25	7234.18
166.95	7384.64
167.65	7293.55
168.35	7384.68
169.05	7454.89
169.75	7476.48
170.45	7559.73
171.15	7577.18
171.85	7605.09
172.55	7607.26
173.25	7639.15
173.95	7644.2
174.65	7760.41
175.35	7808.54
176.05	7878.46
176.75	7834.56
177.45	7984.1
178.15	7925.99
178.85	8101.42
179.55	8180.69
180.25	8244.47
180.95	8145.81
181.65	8274.45
182.35	8435.28
183.05	8443.45
183.75	8609.58
184.45	8623.07
185.15	8645.62
185.85	8720.02
186.55	8786.56
187.25	8897.31
187.95	8906.75
188.65	8934.38
189.35	9046.75
190.05	9186.27
190.75	9310.61
191.45	9296.58
192.15	9389.88
192.85	9466.07
193.55	9588.54
194.25	9764.2
194.95	9887.04
195.65	9991.45
196.35	10058.4
197.05	10283.4
197.75	10270.8
198.45	10468
199.15	10511
199.85	10826.5
200.55	10872.1
201.25	11038.7
201.95	11262.8
202.65	11451.4
203.35	11522.6
204.05	11977.7
204.75	11974.8
205.45	12368.6
206.15	12463.8
206.85	12834.3
207.55	13034.3
208.25	13307.2
208.95	13729
209.65	14107.4
210.35	14619.2
211.05	15125.1
211.75	15822.3
212.45	16464.8
213.15	17326.8
213.85	18389.6
214.55	19426.3
215.25	20672.3
215.95	22656
216.65	24872.7
217.35	27761.2
218.05	31166.4
218.75	32515.2
219.45	30422
220.15	24759.8
220.85	16663.2
221.55	8887.37
222.25	3609.61
222.95	1130.3
223.65	190.62
224.35	41.6685
225.05	12.1977
225.75	10.4329
226.45	26.0951
227.15	1.8572
227.85	4.86124
228.55	4.13342
229.25	9.00762
229.95	8.74688
230.65	6.02628
231.35	4.52226
232.05	2.03095
232.75	1.22728
233.45	1.02159
234.15	13.8068
234.85	1.96666
235.55	7.31649
236.25	11.7213
236.95	7.61405
237.65	1.09747
238.35	2.32602
239.05	6.41018
239.75	6.54269
240.45	20.6578
241.15	15.7275
241.85	3.77971
242.55	14.5815
243.25	8.11892
243.95	8.31175
244.65	22.6414
245.35	10.4376
246.05	13.418
246.75	29
247.45	18.1984
248.15	29.7941
248.85	4.63897
249.55	9.23247
250.25	1.65609
250.95	4.75325
251.65	3.6358
252.35	2.35098
253.05	6.80403
253.75	7.91003
254.45	17.043
255.15	7.51043
255.85	29.8125
256.55	11.6286
257.25	4.14391
257.95	5.20603
258.65	4.01114
259.35	7.45587
260.05	7.87681
260.75	7.922
261.45	5.12197
262.15	4.13173
262.85	3.85585
263.55	6.1792
264.25	9.34064
264.95	8.05511
265.65	6.75559
266.35	9.34637
267.05	4.53761
267.75	3.02222
268.45	4.40409
269.15	8.25749
269.85	7.14314
270.55	24.2386
271.25	8.12231
271.95	7.50378
272.65	21.3219
273.35	15.3321
274.05	21.5944
274.75	23.1783
275.45	31.3546
276.15	16.0651
276.85	6.63786
277.55	9.01655
278.25	14.2018
278.95	0.865412
279.65	1.67851
280.35	3.88575
281.05	2.0442
281.75	10.3685
282.45	2.22776
283.15	1.62221
283.85	2.60721
284.55	5.91394
285.25	8.01821
285.95	18.877
286.65	20.3975
287.35	13.4911
288.05	17.4391
288.75	12.2393
289.45	15.6426
290.15	7.55715
290.85	7.50921
291.55	13.3295
292.25	7.32704
292.95	5.28404
293.65	7.52812
294.35	10.016
295.05	15.1286
295.75	11.1516
296.45	1.80365
297.15	2.06539
297.85	2.54208
298.55	2.30423
299.25	5.37491
299.95	2.23901
300.65	7.65446
301.35	6.05966
302.05	13.1171
302.75	11.5486
303.45	6.67962
304.15	5.80829
304.85	13.0749
305.55	4.63703
306.25	19.2834
306.95	8.22598
307.65	3.16377
308.35	2.8204
309.05	7.59478
309.75	0
310.45	1.25224
311.15	0
311.85	0.843258
312.55	0.210763
313.25	3.05238
313.95	5.73259
314.65	0.116185
315.35	0.233566
316.05	0.606148
316.75	5.94259
317.45	0.18248
318.15	0
318.85	0.858319
319.55	0.00530716
320.25	0
320.95	0.288369
321.65	0.0613356
322.35	0.0152885
323.05	0
323.75	5.93492
324.45	0.412496
325.15	1.22928
325.85	2.75042
326.55	9.20151
327.25	14.2567
327.95	0
328.65	0.548011
329.35	1.20438
330.05	0.0387882
330.75	2.12629
331.45	5.01851
332.15	2.5519
332.85	0.0154542
333.55	0.145561
334.25	0.170404
334.95	0.0095725
335.65	0.396343
336.35	14.0212
337.05	3.87871
337.75	0.424566
338.45	0.0129488
339.15	0.723665
339.85	0.101349
340.55	0.157994
341.25	0.169491
341.95	0.0584862
342.65	7.32029
343.35	3.40092
344.05	0.124673
344.75	1.38683
345.45	1.38908
346.15	23.447
346.85	4.23974
347.55	9.75224
348.25	4.51308
348.95	0.811754
349.65	2.95133
350.35	1.08797
351.05	1.81489
351.75	1.75814
352.45	4.88856
353.15	6.92436
353.85	1.50116
354.55	2.53945
355.25	3.4305
355.95	2.16317
356.65	15.0831
357.35	8.31748
358.05	3.3574
358.75	7.63033
359.45	2.45419
360.15	7.6995
360.85	8.76849
361.55	11.7269
362.25	12.5729
362.95	19.1817
363.65	3.71065
364.35	3.86203
365.05	12.2939
365.75	2.77537
366.45	6.37145
367.15	7.87633
367.85	10.0797
368.55	11.2271
369.25	15.4893
369.95	9.0781
370.65	10.8269
371.35	12.9429
372.05	7.32202
372.75	3.4276
373.45	3.97605
374.15	4.60364
374.85	4.25382
375.55	9.99093
376.25	5.09679
376.95	4.90362
377.65	5.27022
378.35	6.49684
379.05	7.46491
379.75	12.5437
380.45	6.8831
381.15	2.55474
381.85	3.60356
382.55	2.16745
383.25	1.75461
383.95	1.65596
384.65	2.38853
385.35	1.45277
386.05	2.88474
386.75	23.9764
387.45	12.4267
388.15	3.16676
388.85	4.35692
389.55	3.8645
390.25	4.61297
390.95	3.75391
391.65	5.04028
392.35	6.37564
393.05	8.22855
393.75	7.61623
394.45	1.5712
395.15	4.08162
395.85	1.90605
396.55	0.868441
397.25	39.6739
397.95	12.3511
398.65	2.24581
399.35	4.85952
400.05	4.92446
400.75	10.453
401.45	1.76986
402.15	18.8976
402.85	1.64505
403.55	1.94377
404.25	1.33499
404.95	2.24416
405.65	1.39085
406.35	1.86617
407.05	3.17786
407.75	3.45956
408.45	1.60199
409.15	6.16106
409.85	8.9273
410.55	9.41175
411.25	10.4632
411.95	9.2062
412.65	3.68728
413.35	0.0371176
414.05	0.0213579
414.75	0
415.45	3.14741
416.15	0
416.85	0.430721
417.55	5.13454
418.25	3.10964
418.95	0.00273112
419.65	0.596478
420.35	0
421.05	0.0143426
421.75	6.3956
422.45	4.38519
423.15	2.66242
423.85	0.00181182
424.55	0.289031
425.25	6.32756
425.95	12.5206
426.65	6.23264
427.35	0.355955
428.05	0
428.75	0
429.45	0
430.15	0
430.85	0
431.55	0.818037
432.25	0
432.95	0
433.65	0
434.35	0
435.05	0
435.75	0
436.45	0
437.15	2.72659
437.85	1.4158
438.55	5.865
439.25	2.49581
439.95	3.65801
440.65	4.49226
441.35	5.40051
442.05	5.41827
442.75	6.07467
443.45	4.23774
444.15	11.8762
444.85	1.77997
445.55	0.252333
446.25	0
446.95	0
447.65	0
448.35	0
449.05	0.258972
449.75	0
450.45	0
451.15	0.00339697
451.85	0.0369116
452.55	4.39542
453.25	11.111
453.95	7.83399
454.65	12.7776
455.35	0
456.05	0.00382375
456.75	0
457.45	0
458.15	0.966067
458.85	0
459.55	2.81629
460.25	0
460.95	0.830168
461.65	0.216374
462.35	0.803087
463.05	0.255697
463.75	20.1397
464.45	15.6418
465.15	1.15705
465.85	0.0469758
466.55	0.126219
467.25	0.241624
467.95	2.56182
468.65	0.0161311
469.35	7.87336
470.05	0.00445705
470.75	0.0303991
471.45	9.03909
472.15	18.6155
472.85	0.519323
473.55	0
474.25	0
474.95	0
475.65	0.0232107
476.35	0.013051
477.05	0
477.75	0
478.45	0
479.15	0.00498293
479.85	0.00184722
480.55	0.0196934
481.25	0
481.95	4.05169
482.65	3.63491
483.35	2.48201
484.05	10.5242
484.75	0.107212
485.45	0
486.15	2.94656
486.85	0
487.55	1.06581
488.25	1.93217
488.95	1.76945
489.65	2.57249
490.35	3.81621
491.05	6.08998
491.75	5.83928
492.45	7.15774
493.15	8.72288
493.85	13.7618
494.55	12.0778
495.25	6.70089
495.95	0
496.65	0
497.35	0
498.05	3.7826
498.75	0.00655822
499.45	0
500.15	0
500.85	0
501.55	0
502.25	0
502.95	0
503.65	0.00374788
504.35	2.68021
505.05	7.13235
505.75	0
506.45	0
507.15	0
507.85	0
508.55	0.20161
509.25	0
509.95	2.40558
510.65	9.41755
511.35	0.296578
512.05	0
512.75	1.2725
513.45	0
514.15	0
514.85	0
515.55	0
516.25	0
516.95	0
517.65	0
518.35	2.07118
519.05	0
519.75	0
520.45	0
521.15	1.36501
521.85	0
522.55	0
523.25	0
523.95	0
524.65	0
525.35	0
526.05	0
526.75	0.00534736
527.45	4.74333
528.15	6.03139
528.85	10.9317
529.55	6.01494
530.25	0
530.95	0
531.65	0
532.35	0
533.05	0
533.75	0
534.45	0
535.15	0
535.85	0
536.55	0
537.25	0
537.95	0
538.65	0
539.35	0.294213
540.05	5.74021
540.75	2.72949
541.45	0
542.15	0
542.85	1.62891
543.55	0
544.25	0
544.95	3.12762
545.65	0.69331
546.35	0
547.05	0
547.75	0
548.45	0
549.15	0
549.85	0
550.55	0
551.25	0
551.95	0
552.65	0
553.35	0
554.05	0
554.75	0
555.45	0
556.15	0
556.85	0
557.55	0
558.25	0.728272
558.95	0
559.65	0
560.35	0.0104079
561.05	0
561.75	0
562.45	0
563.15	0
563.85	9.34467
564.55	0
565.25	0
565.95	0
566.65	0
567.35	0.00904767
568.05	0
568.75	0
569.45	0
570.15	0
570.85	0
571.55	0
572.25	0
572.95	0
573.65	0
574.35	0
575.05	1.11106
575.75	0
576.45	0
577.15	0
577.85	0.00451338
578.55	21.5064
579.25	0
579.95	1.24519
580.65	0
581.35	0
582.05	0.300358
582.75	3.01454
583.45	0
584.15	0.023487
584.85	0
585.55	0
586.25	0
586.95	0
587.65	0
588.35	0.0078097
589.05	0.849013
589.75	0
590.45	0
591.15	0
591.85	0
592.55	3.58725
593.25	0.00274103
593.95	0
594.65	0
595.35	0.0121363
596.05	0
596.75	0
597.45	0.147403
598.15	0
598.85	0
599.55	0
600.25	0
600.95	0
601.65	0
602.35	0
603.05	0
603.75	0
604.45	0
605.15	0
605.85	0
606.55	0
607.25	0
607.95	0
608.65	0
609.35	0
610.05	0
610.75	0
611.45	0
612.15	0
612.85	0
613.55	0
614.25	0
614.95	0
615.65	0
616.35	0
617.05	0
617.75	0
618.45	0
619.15	0
619.85	0
620.55	0
621.25	0
621.95	0
622.65	0
623.35	0
624.05	0
624.75	0
625.45	0
626.15	0
626.85	0
627.55	0
628.25	0
628.95	0
629.65	0
630.35	0
631.05	0
631.75	0
632.45	0
633.15	0
633.85	0
634.55	0
635.25	0
635.95	0
636.65	0
637.35	0
638.05	0
638.75	0
639.45	0
640.15	0
640.85	0
641.55	0
642.25	0
642.95	0
643.65	0
644.35	0
645.05	0
645.75	0
646.45	0
647.15	0
647.85	0
648.55	0
649.25	0
649.95	0
650.65	0
651.35	0
652.05	0
652.75	0
653.45	0
654.15	0
654.85	0
655.55	0
656.25	0
656.95	0
657.65	0
658.35	0
659.05	0
659.75	0
660.45	0
661.15	0
661.85	0
662.55	0
663.25	0
663.95	0
664.65	0
665.35	0
666.05	0
666.75	0
667.45	0
668.15	0
668.85	0
669.55	0
670.25	0
670.95	0
671.65	0
672.35	0
673.05	0
673.75	0
674.45	0
675.15	0
675.85	0
676.55	0
677.25	0
677.95	0
678.65	0
679.35	0
680.05	0
680.75	0
681.45	0
682.15	0
682.85	0
683.55	0
684.25	0
684.95	0
685.65	0
686.35	0
687.05	0
687.75	0
688.45	0
689.15	0
689.85	0
690.55	0
691.25	0
691.95	0
692.65	0
693.35	0
694.05	0
694.75	0
695.45	0
696.15	0
696.85	0
697.55	0
698.25	0
698.95	0
699.65	0
