{
    "particle": "proton",
    "energy": "147 MeV",
    "Zmin": "0*m",
    "Zmax": "0.7*m",
    "bins": "1000",
    "SetCutValue": "0.01*mm"
}


# Z (mm) 	 Energy Deposition (MeV)
0.35	0
1.05	0
1.75	0
2.45	0
3.15	0
3.85	0
4.55	0
5.25	0
5.95	0
6.65	0
7.35	0
8.05	0
8.75	0
9.45	0
10.15	0
10.85	0
11.55	0
12.25	0
12.95	0
13.65	0
14.35	0
15.05	0
15.75	0
16.45	0
17.15	0
17.85	0
18.55	0
19.25	0
19.95	0
20.65	0
21.35	0
22.05	0
22.75	0
23.45	0
24.15	0
24.85	0
25.55	0
26.25	0
26.95	0
27.65	0
28.35	0
29.05	0
29.75	0
30.45	0
31.15	0
31.85	0
32.55	0
33.25	0
33.95	0
34.65	0
35.35	0
36.05	0
36.75	0
37.45	0
38.15	0
38.85	0
39.55	0
40.25	0
40.95	0
41.65	0
42.35	0
43.05	0
43.75	0
44.45	0
45.15	0
45.85	0
46.55	0
47.25	0
47.95	0
48.65	0
49.35	0
50.05	0
50.75	0
51.45	0
52.15	0
52.85	0
53.55	0
54.25	0
54.95	0
55.65	0
56.35	0
57.05	0
57.75	0
58.45	0
59.15	0
59.85	0
60.55	0
61.25	0
61.95	0
62.65	0
63.35	0
64.05	0
64.75	0
65.45	0
66.15	0
66.85	0
67.55	0
68.25	0
68.95	0
69.65	0
70.35	0
71.05	0
71.75	0
72.45	0
73.15	0
73.85	0
74.55	0
75.25	0
75.95	0
76.65	0
77.35	0
78.05	0
78.75	0
79.45	0
80.15	0
80.85	0
81.55	0
82.25	0
82.95	0
83.65	0
84.35	0
85.05	0
85.75	0
86.45	0
87.15	0
87.85	0
88.55	0
89.25	0
89.95	0
90.65	0
91.35	0
92.05	0
92.75	0
93.45	0
94.15	0
94.85	0
95.55	0
96.25	0
96.95	0
97.65	0
98.35	0
99.05	0
99.75	3072.56
100.45	4598.33
101.15	4581.12
101.85	4643.94
102.55	4690.58
103.25	4652.16
103.95	4664.93
104.65	4616.89
105.35	4769.08
106.05	4659.16
106.75	4739.62
107.45	4805.09
108.15	4855.92
108.85	4927.12
109.55	4859.87
110.25	4879.13
110.95	4889.14
111.65	4867.17
112.35	5012.07
113.05	4980.76
113.75	4995.52
114.45	4938.2
115.15	5013.73
115.85	4963.61
116.55	4993.2
117.25	5029.06
117.95	5042.72
118.65	4976.27
119.35	5058.49
120.05	5081.25
120.75	5176.8
121.45	5066.84
122.15	5202.63
122.85	5206.68
123.55	5152.6
124.25	5146.13
124.95	5116.19
125.65	5128.7
126.35	5154.4
127.05	5240.79
127.75	5282.5
128.45	5198.57
129.15	5153.18
129.85	5309.78
130.55	5324.15
131.25	5255.55
131.95	5391.94
132.65	5364.71
133.35	5401.25
134.05	5363.23
134.75	5332.9
135.45	5490.17
136.15	5462.35
136.85	5379.62
137.55	5418.48
138.25	5404.3
138.95	5475.76
139.65	5486.05
140.35	5522.78
141.05	5463.23
141.75	5505.44
142.45	5565.09
143.15	5435.59
143.85	5611.66
144.55	5500.08
145.25	5616.14
145.95	5619.22
146.65	5651.77
147.35	5553.08
148.05	5686.5
148.75	5679.66
149.45	5637.85
150.15	5884.78
150.85	5759.34
151.55	5765.98
152.25	5738.59
152.95	5723.96
153.65	5780.05
154.35	5743
155.05	5777.84
155.75	5807.76
156.45	5887.13
157.15	5848.04
157.85	5999.31
158.55	5827.12
159.25	5857.83
159.95	5944.05
160.65	5944.09
161.35	5970.79
162.05	5958.9
162.75	6006.12
163.45	5910.16
164.15	6067.87
164.85	5963.72
165.55	6105.95
166.25	6102.27
166.95	6088.12
167.65	6128.55
168.35	6227.82
169.05	6174.09
169.75	6285.57
170.45	6305.36
171.15	6105.39
171.85	6164.3
172.55	6387.78
173.25	6288.66
173.95	6269.42
174.65	6299.38
175.35	6244.41
176.05	6284.33
176.75	6371.7
177.45	6302.86
178.15	6441.31
178.85	6456.95
179.55	6378.48
180.25	6454.42
180.95	6525.01
181.65	6476.1
182.35	6581.94
183.05	6481.04
183.75	6571.42
184.45	6574.74
185.15	6549.48
185.85	6561
186.55	6577.14
187.25	6712.98
187.95	6701.3
188.65	6779
189.35	6699.93
190.05	6640.22
190.75	6652.84
191.45	6883.38
192.15	6831.95
192.85	6748.91
193.55	6894.72
194.25	6941.7
194.95	6916.33
195.65	7021.79
196.35	7013.65
197.05	7085.35
197.75	7084.22
198.45	7100.53
199.15	7171.7
199.85	7133.5
200.55	7148.57
201.25	7307.84
201.95	7311.24
202.65	7357.29
203.35	7361.81
204.05	7557.2
204.75	7519.48
205.45	7599.19
206.15	7636.72
206.85	7581.17
207.55	7621.78
208.25	7588.35
208.95	7705.86
209.65	7718.24
210.35	7764.59
211.05	7781.8
211.75	7897.57
212.45	7836.38
213.15	7974.98
213.85	8028.73
214.55	8023.09
215.25	8065.13
215.95	8220.94
216.65	8255.77
217.35	8233.66
218.05	8368.59
218.75	8388.59
219.45	8490.02
220.15	8613.49
220.85	8666
221.55	8639.12
222.25	8688.06
222.95	8793.81
223.65	9029.74
224.35	8869.18
225.05	9097.01
225.75	9123.59
226.45	9216.78
227.15	9333.15
227.85	9468.47
228.55	9511.28
229.25	9766.44
229.95	9947.47
230.65	10082.3
231.35	10205.4
232.05	10222.4
232.75	10336.9
233.45	10443.4
234.15	10600.5
234.85	10786
235.55	10980.8
236.25	11205.6
236.95	11418.6
237.65	11644.6
238.35	11872.9
239.05	12140.1
239.75	12465.5
240.45	12641.7
241.15	13118
241.85	13461
242.55	13670.7
243.25	14273.9
243.95	14955.4
244.65	15385.9
245.35	16026.6
246.05	16922.8
246.75	18008.8
247.45	18872.4
248.15	20466.4
248.85	22116
249.55	24141.6
250.25	26125.4
250.95	28004.1
251.65	28281.9
252.35	26124.9
253.05	22271.1
253.75	16326.9
254.45	10530.5
255.15	6056.92
255.85	2899.66
256.55	1139.95
257.25	366.981
257.95	163.034
258.65	45.3288
259.35	13.8248
260.05	23.9012
260.75	31.2773
261.45	30.6825
262.15	4.86384
262.85	6.80767
263.55	2.59976
264.25	19.9586
264.95	5.84877
265.65	8.62118
266.35	16.7592
267.05	2.19342
267.75	3.82802
268.45	5.58679
269.15	18.8107
269.85	9.20797
270.55	42.2276
271.25	37.6743
271.95	43.7336
272.65	10.5583
273.35	21.4798
274.05	17.0605
274.75	14.7582
275.45	15.5978
276.15	9.73002
276.85	44.0032
277.55	17.2308
278.25	4.44781
278.95	3.04782
279.65	20.763
280.35	4.44153
281.05	7.65236
281.75	20.4455
282.45	18.8002
283.15	19.8645
283.85	19.3283
284.55	41.1795
285.25	21.0583
285.95	5.06706
286.65	5.0733
287.35	10.1556
288.05	6.92158
288.75	16.1632
289.45	10.4753
290.15	17.1584
290.85	43.4352
291.55	12.4603
292.25	21.9638
292.95	17.8995
293.65	13.2626
294.35	5.51033
295.05	5.10432
295.75	12.0061
296.45	8.27609
297.15	24.3933
297.85	13.7202
298.55	15.5965
299.25	31.3196
299.95	14.4337
300.65	11.2759
301.35	1.16267
302.05	14.6265
302.75	7.28469
303.45	12.0011
304.15	8.5689
304.85	11.1426
305.55	2.08385
306.25	3.37388
306.95	1.54187
307.65	3.67363
308.35	9.87017
309.05	27.214
309.75	16.0836
310.45	11.4514
311.15	6.28086
311.85	16.2755
312.55	7.53069
313.25	7.51428
313.95	5.99367
314.65	8.45283
315.35	10.9198
316.05	7.76992
316.75	15.9026
317.45	11.5864
318.15	17.5385
318.85	12.0958
319.55	7.73539
320.25	5.01699
320.95	19.2453
321.65	23.3835
322.35	5.55354
323.05	9.70466
323.75	7.59236
324.45	6.30569
325.15	13.8626
325.85	15.2208
326.55	9.94485
327.25	3.73721
327.95	6.48465
328.65	10.4317
329.35	5.49112
330.05	5.98009
330.75	6.71113
331.45	8.02608
332.15	19.8758
332.85	13.1398
333.55	3.52882
334.25	5.93534
334.95	1.16096
335.65	7.97316
336.35	18.4859
337.05	0.0344355
337.75	18.5497
338.45	5.16123
339.15	0.0110329
339.85	5.02851
340.55	0.0339824
341.25	0.41497
341.95	5.95026
342.65	5.76156
343.35	7.50099
344.05	1.90984
344.75	0.291929
345.45	0.0098146
346.15	6.22504
346.85	22.2951
347.55	8.74156
348.25	18.837
348.95	7.79671
349.65	17.2373
350.35	17.3695
351.05	4.13735
351.75	8.03403
352.45	20.0084
353.15	1.75346
353.85	0.199566
354.55	0.150903
355.25	0.00306025
355.95	0.151842
356.65	8.64323
357.35	16.8499
358.05	12.7033
358.75	0.301104
359.45	0.36664
360.15	0.23626
360.85	0.193396
361.55	1.30949
362.25	3.16505
362.95	4.74332
363.65	0.213947
364.35	1.50026
365.05	0.783408
365.75	2.66085
366.45	0.829043
367.15	1.59288
367.85	4.53775
368.55	1.48594
369.25	14.4097
369.95	27.015
370.65	31.4904
371.35	3.12487
372.05	0.0155511
372.75	9.43671
373.45	0.0191028
374.15	0
374.85	0.254843
375.55	1.60417
376.25	12.4589
376.95	0.137937
377.65	0
378.35	0.173988
379.05	0.0342458
379.75	3.03935
380.45	2.42777
381.15	2.90477
381.85	3.73941
382.55	0.00454584
383.25	7.78765
383.95	0.0228124
384.65	0.0276633
385.35	5.17918
386.05	6.29564
386.75	11.0341
387.45	12.702
388.15	5.93738
388.85	7.6367
389.55	18.6864
390.25	17.8286
390.95	4.09964
391.65	2.40857
392.35	2.24692
393.05	2.41005
393.75	8.82729
394.45	8.32011
395.15	2.8053
395.85	2.49593
396.55	3.21255
397.25	3.62289
397.95	2.96104
398.65	27.3696
399.35	11.8191
400.05	9.7967
400.75	15.7388
401.45	22.2486
402.15	5.64716
402.85	6.43155
403.55	7.66121
404.25	9.54222
404.95	13.4652
405.65	7.20105
406.35	0.298834
407.05	1.38212
407.75	1.77917
408.45	2.45486
409.15	4.18951
409.85	5.12644
410.55	5.45505
411.25	2.43961
411.95	2.04582
412.65	1.97433
413.35	2.38943
414.05	6.05817
414.75	6.2146
415.45	5.76117
416.15	2.3802
416.85	2.92113
417.55	9.62289
418.25	4.07242
418.95	4.13243
419.65	12.2064
420.35	0
421.05	3.00236
421.75	2.3505
422.45	0.797142
423.15	5.46754
423.85	5.21023
424.55	0
425.25	0.00626935
425.95	0.0237626
426.65	0.00698429
427.35	0
428.05	0
428.75	0.00637249
429.45	7.17704
430.15	3.20133
430.85	2.30275
431.55	0
432.25	0.471809
432.95	4.8105
433.65	0.828581
434.35	0.103427
435.05	1.77632
435.75	2.99241
436.45	4.82391
437.15	2.71147
437.85	3.8885
438.55	6.53473
439.25	6.99792
439.95	4.19766
440.65	3.47917
441.35	9.16208
442.05	5.90165
442.75	6.86552
443.45	7.48877
444.15	9.33711
444.85	12.2247
445.55	5.54356
446.25	0.706334
446.95	2.32443
447.65	2.20675
448.35	2.08004
449.05	2.35237
449.75	2.0113
450.45	23.9161
451.15	3.62708
451.85	4.45617
452.55	2.92173
453.25	2.99713
453.95	3.26492
454.65	4.33648
455.35	12.7201
456.05	14.9719
456.75	8.18659
457.45	7.72005
458.15	0.0493736
458.85	0
459.55	0
460.25	0.645459
460.95	0.144013
461.65	0
462.35	0
463.05	0
463.75	0.00706393
464.45	2.38497
465.15	8.56444
465.85	10.515
466.55	5.44787
467.25	0.00878792
467.95	0
468.65	0
469.35	0.0284462
470.05	11.147
470.75	9.34542
471.45	1.31411
472.15	0
472.85	0.379903
473.55	0
474.25	0
474.95	3.99683
475.65	6.42772
476.35	15.2858
477.05	9.8878
477.75	0
478.45	0
479.15	1.02761
479.85	0
480.55	0.0672959
481.25	0.00149736
481.95	4.98964
482.65	0
483.35	2.26838
484.05	0.643395
484.75	0
485.45	0
486.15	0
486.85	0
487.55	0.0132952
488.25	4.72522
488.95	11.8375
489.65	0.161516
490.35	0
491.05	0
491.75	0.0110081
492.45	0.299976
493.15	0
493.85	0
494.55	3.25967
495.25	0
495.95	0
496.65	2.41061
497.35	1.01808
498.05	0.00279095
498.75	0
499.45	0
500.15	0.710965
500.85	3.08909
501.55	0
502.25	0
502.95	0
503.65	0.0112589
504.35	0.525616
505.05	0.101388
505.75	0.938074
506.45	0.641915
507.15	1.10559
507.85	1.08704
508.55	1.15279
509.25	4.69244
509.95	4.99284
510.65	1.09294
511.35	1.15499
512.05	3.6227
512.75	8.68426
513.45	18.7111
514.15	1.35411
514.85	0.888501
515.55	1.26507
516.25	1.42046
516.95	1.02672
517.65	1.22521
518.35	1.29306
519.05	1.44228
519.75	1.16321
520.45	5.02729
521.15	11.6357
521.85	1.61746
522.55	1.12652
523.25	3.81807
523.95	6.45426
524.65	9.91501
525.35	13.584
526.05	1.49775
526.75	15.9579
527.45	8.48452
528.15	9.96593
528.85	2.26579
529.55	1.40079
530.25	2.00052
530.95	2.01451
531.65	1.74899
532.35	1.82173
533.05	2.5382
533.75	2.24694
534.45	2.30974
535.15	2.33778
535.85	2.08078
536.55	6.7756
537.25	2.51551
537.95	3.04666
538.65	2.34711
539.35	3.63548
540.05	3.44502
540.75	4.04522
541.45	4.77722
542.15	7.21735
542.85	10.4633
543.55	3.04811
544.25	3.6301
544.95	1.74297
545.65	1.89801
546.35	11.1567
547.05	1.34923
547.75	2.51926
548.45	3.95329
549.15	7.98023
549.85	7.91764
550.55	8.7054
551.25	18.9741
551.95	13.8232
552.65	26.5853
553.35	4.35882
554.05	0
554.75	2.33211
555.45	8.41509
556.15	0
556.85	0
557.55	0
558.25	0.0120948
558.95	0
559.65	0
560.35	0
561.05	0.0241903
561.75	0
562.45	0
563.15	0
563.85	0.0141046
564.55	0
565.25	0.0744766
565.95	0.0242597
566.65	2.15492
567.35	2.7993
568.05	4.89926
568.75	0.160465
569.45	0.00209245
570.15	0
570.85	0
571.55	0
572.25	0
572.95	0.0125362
573.65	14.7216
574.35	9.33961
575.05	2.37396
575.75	3.13802
576.45	3.71644
577.15	3.80179
577.85	5.26087
578.55	7.08229
579.25	10.5981
579.95	1.34519
580.65	1.56332
581.35	0
582.05	11.8289
582.75	2.57649
583.45	0.658808
584.15	1.0886
584.85	1.98374
585.55	1.71852
586.25	5.29539
586.95	6.95822
587.65	7.79684
588.35	9.77613
589.05	11.7103
589.75	1.80108
590.45	2.44739
591.15	2.03502
591.85	1.67465
592.55	2.23795
593.25	4.16692
593.95	13.0995
594.65	1.34725
595.35	2.05536
596.05	2.20772
596.75	2.14173
597.45	2.84211
598.15	2.44701
598.85	7.5547
599.55	7.73227
600.25	0.214592
600.95	0
601.65	0
602.35	0
603.05	0
603.75	0
604.45	0
605.15	0
605.85	0
606.55	0
607.25	0
607.95	0
608.65	0
609.35	0
610.05	0
610.75	0
611.45	0
612.15	0
612.85	0
613.55	0
614.25	0
614.95	0
615.65	0
616.35	0
617.05	0
617.75	0
618.45	0
619.15	0
619.85	0
620.55	0
621.25	0
621.95	0
622.65	0
623.35	0
624.05	0
624.75	0
625.45	0
626.15	0
626.85	0
627.55	0
628.25	0
628.95	0
629.65	0
630.35	0
631.05	0
631.75	0
632.45	0
633.15	0
633.85	0
634.55	0
635.25	0
635.95	0
636.65	0
637.35	0
638.05	0
638.75	0
639.45	0
640.15	0
640.85	0
641.55	0
642.25	0
642.95	0
643.65	0
644.35	0
645.05	0
645.75	0
646.45	0
647.15	0
647.85	0
648.55	0
649.25	0
649.95	0
650.65	0
651.35	0
652.05	0
652.75	0
653.45	0
654.15	0
654.85	0
655.55	0
656.25	0
656.95	0
657.65	0
658.35	0
659.05	0
659.75	0
660.45	0
661.15	0
661.85	0
662.55	0
663.25	0
663.95	0
664.65	0
665.35	0
666.05	0
666.75	0
667.45	0
668.15	0
668.85	0
669.55	0
670.25	0
670.95	0
671.65	0
672.35	0
673.05	0
673.75	0
674.45	0
675.15	0
675.85	0
676.55	0
677.25	0
677.95	0
678.65	0
679.35	0
680.05	0
680.75	0
681.45	0
682.15	0
682.85	0
683.55	0
684.25	0
684.95	0
685.65	0
686.35	0
687.05	0
687.75	0
688.45	0
689.15	0
689.85	0
690.55	0
691.25	0
691.95	0
692.65	0
693.35	0
694.05	0
694.75	0
695.45	0
696.15	0
696.85	0
697.55	0
698.25	0
698.95	0
699.65	0
